# Wavenumber Transmittence
3033.00 0.286940
3083.00 0.464320
3028.00 0.343620
3013.00 0.301140
3073.00 0.099560
3023.00 0.346560
3088.00 0.523160
3063.00 0.019160
3043.00 0.173000
3098.00 0.682720
3108.00 0.719040
3068.00 0.013240
3053.00 0.069360
3058.00 0.043120
3018.00 0.333940
3048.00 0.116000
3038.00 0.230000
3078.00 0.405460
3103.00 0.700580
3093.00 0.627860
