# Wavenumber Transmittence
3138.13 1.000000
3147.50 1.000000
3095.94 0.996560
3081.88 0.994580
3100.63 0.997000
3072.50 0.991060
3142.81 1.000000
3124.06 1.000000
3128.75 1.000000
3086.56 0.995000
3114.69 0.998060
3152.19 1.000000
3091.25 0.995000
3077.19 0.992760
3105.31 0.997040
3063.13 0.985880
3110.00 0.997940
3133.44 1.000000
3067.81 0.988880
3119.38 0.999860
