# Wavenumber	Transmittence
2074.06	0.998280
2036.56	1.001000
2003.75	1.001000
2088.13	0.994780
2092.81	0.993840
2055.31	1.001000
2027.19	1.001000
2045.94	1.001400
2022.50	1.001000
2017.81	1.001000
2078.75	0.997740
2060.00	1.000740
2013.13	1.001000
2050.63	1.001000
2064.69	1.000000
2069.38	1.000000
2031.88	1.001000
2083.44	0.996840
2041.25	1.001000
2008.44	1.001000
